gold_2019-03-18_12.57.39, 10um, 128 pixels, Left.wsf

Pixels in X: 	128
Lines in Y: 	128
X Range: 	10.000
Y Range: 	10.000
Z-Drive Calibration: 	1.0000
Z-Sense Calibration: 	1.9316
X Calibration: 	0.5952
Y Calibration: 	0.5940
X Offset: 	5.000
Y Offset: 	5.000
Rotation(°): 	90
Scan Rate(Hz): 	0.80
Scan Type: 	Vibrating
Vpp: 	0.200
Phase: 	86.51
Demod Gain : 	4dB
Selected (kHz) : 	149.69
Display Type: 	Z_DRIVE
Samples/Pixel: 	25
XY HV Gain: 	3
Z HV Gain: 	3
Z Sensor Gain: 	640
X GPID: 	100.000000000 %, 256, 4096, 0
Y GPID: 	100.000000000 %, 256, 4096, 0
Z GPID: 	1.0000, 100, 1000, 0
Setpoint: 	727





-775.0577	-835.2238	-851.5253	-867.4701	-883.5856	-898.3267	-911.0568	-924.2201	-938.0246	-943.4475	-943.9377	-964.7189	-989.3342	-1002.2502	-1014.5359	-1026.5569	-1038.6216	-1050.7126	-1062.2456	-1072.5027	-1082.1798	-1098.9628	-1110.8590	-1122.3307	-1135.1745	-1145.8474	-1157.2052	-1169.1255	-1180.9298	-1191.4145	-1203.0875	-1214.7518	-1226.2453	-1237.2509	-1247.9522	-1259.9797	-1270.0946	-1281.6735	-1292.9679	-1304.0741	-1314.2568	-1318.8634	-1321.1043	-1323.0039	-1350.2912	-1367.9123	-1378.1957	-1389.0918	-1397.6901	-1404.2728	-1419.9572	-1409.2843	-1426.1110	-1445.1152	-1454.6852	-1458.3332	-1463.6839	-1487.9622	-1499.3529	-1509.3977	-1519.6439	-1528.4588	-1537.6458	-1549.0649	-1554.5775	-1567.7890	-1577.3742	-1587.8261	-1598.1664	-1606.2635	-1614.7742	-1624.8234	-1634.5159	-1643.2280	-1652.9642	-1661.1533	-1669.6465	-1669.9726	-1688.5741	-1697.8836	-1707.6002	-1715.9227	-1724.4138	-1733.7911	-1742.7221	-1747.6132	-1740.6474	-1769.5126	-1778.4085	-1787.8997	-1796.1128	-1804.6301	-1813.9484	-1822.1331	-1830.4490	-1835.5962	-1843.1178	-1857.1455	-1864.4329	-1873.1581	-1882.1219	-1889.6610	-1898.3971	-1907.4550	-1914.3288	-1922.1370	-1920.1543	-1940.7626	-1948.2864	-1956.1669	-1964.3034	-1951.3524	-1957.6047	-1963.4127	-1997.1821	-2005.5156	-2013.3436	-2021.3028	-2029.8202	-2036.4007	-2044.9859	-2053.4725	-2052.1507	-2064.1914	-2076.6216	-2083.5195	-2092.2819	-2099.9742
-774.9067	-832.3351	-849.5054	-864.7981	-879.8084	-894.7290	-908.0192	-920.7361	-934.7201	-943.8611	-942.3161	-968.3976	-986.3492	-999.0901	-1010.6406	-1022.8694	-1035.3674	-1047.7473	-1059.3087	-1070.9511	-1081.7421	-1094.9667	-1107.3641	-1119.0502	-1131.0581	-1142.3174	-1151.1171	-1160.6323	-1174.9839	-1187.7117	-1199.5467	-1211.7799	-1222.6366	-1232.8412	-1245.1401	-1255.7517	-1266.7485	-1278.0735	-1288.7486	-1300.6470	-1310.9982	-1318.9969	-1326.0983	-1328.5559	-1335.1540	-1364.6516	-1374.5717	-1385.4240	-1382.8242	-1379.3490	-1402.9182	-1397.4866	-1412.3590	-1444.6316	-1454.7442	-1461.1738	-1466.1152	-1485.0275	-1496.9806	-1505.6161	-1516.3656	-1524.8151	-1534.2953	-1545.9595	-1539.8911	-1552.3256	-1568.4915	-1584.2262	-1594.3432	-1602.2565	-1611.7958	-1621.3198	-1631.0823	-1639.2670	-1649.0120	-1657.7569	-1667.2152	-1671.4301	-1685.1514	-1687.6178	-1703.7311	-1712.9925	-1721.1706	-1730.4954	-1739.5970	-1746.7881	-1747.5103	-1766.1162	-1774.6620	-1783.8599	-1792.5238	-1801.1308	-1809.9020	-1818.2552	-1826.4661	-1834.6749	-1842.4875	-1852.9941	-1861.9206	-1869.7420	-1878.4957	-1886.0676	-1888.4376	-1903.6646	-1910.5931	-1919.3184	-1923.8090	-1936.4799	-1944.8243	-1952.9893	-1961.2703	-1958.4975	-1965.0869	-1962.2616	-1980.5808	-2001.7669	-2009.5401	-2017.0332	-2026.1764	-2032.8599	-2041.2656	-2049.8441	-2053.6520	-2063.0425	-2072.8641	-2079.8758	-2088.8548	-2096.0350
-774.3793	-829.3698	-846.4788	-862.5571	-877.1079	-891.3742	-904.3646	-917.4053	-931.5009	-942.2548	-932.3172	-961.6201	-982.6004	-994.2887	-1007.5243	-1019.5014	-1031.7741	-1044.7601	-1056.7023	-1068.2462	-1079.8689	-1091.4631	-1103.4884	-1115.9689	-1127.6857	-1139.1902	-1149.2679	-1147.5784	-1156.1198	-1177.1001	-1196.1743	-1208.7402	-1219.7808	-1229.7862	-1242.2798	-1252.4735	-1263.0982	-1275.1126	-1285.2756	-1297.0318	-1308.1927	-1317.2287	-1326.5710	-1333.5936	-1340.2858	-1361.0823	-1370.9695	-1381.4871	-1383.2706	-1378.8719	-1379.7232	-1396.2676	-1413.1162	-1442.6182	-1453.0045	-1461.2351	-1468.5619	-1483.2024	-1493.5908	-1502.7165	-1512.9123	-1521.3180	-1530.8726	-1542.7273	-1528.9687	-1539.4227	-1548.6053	-1580.7159	-1590.5572	-1599.0045	-1608.9115	-1617.3609	-1627.6530	-1636.2360	-1644.9350	-1654.2204	-1664.4162	-1670.8414	-1682.6720	-1669.1563	-1696.6319	-1709.6420	-1717.7435	-1727.0005	-1736.9162	-1744.3481	-1747.7051	-1763.1203	-1771.0905	-1780.3781	-1788.8823	-1798.0036	-1806.1598	-1815.1258	-1823.6124	-1831.9525	-1837.9969	-1848.8186	-1858.5045	-1866.7154	-1874.1473	-1883.2095	-1877.2286	-1888.5274	-1903.4305	-1915.3902	-1922.9336	-1933.4183	-1941.1347	-1949.5557	-1958.2656	-1961.0711	-1968.4964	-1971.2691	-1976.2981	-1996.0201	-2006.6142	-2013.8294	-2022.6181	-2029.8289	-2037.9370	-2046.6119	-2053.5623	-2061.1364	-2067.9117	-2076.4771	-2085.2439	-2092.7480
-773.3223	-826.7284	-844.3189	-859.8238	-873.6020	-888.1222	-901.0294	-914.4050	-928.4043	-940.4800	-939.3267	-949.2118	-964.7014	-980.6571	-1004.7953	-1016.7506	-1028.0953	-1041.5497	-1054.4986	-1065.0511	-1077.3675	-1088.9114	-1100.1270	-1113.2444	-1124.4972	-1135.9864	-1147.2873	-1150.9901	-1154.7279	-1158.2776	-1191.6246	-1204.9455	-1216.2136	-1227.1382	-1238.7412	-1249.8846	-1259.8112	-1272.3268	-1282.6014	-1286.1554	-1302.5816	-1315.2919	-1324.4023	-1333.7928	-1343.3561	-1357.5458	-1367.6650	-1378.3861	-1384.6296	-1388.3849	-1388.8598	-1403.2487	-1406.5510	-1433.8164	-1451.0196	-1459.6135	-1467.7544	-1477.8845	-1489.9011	-1500.0663	-1509.8485	-1518.1404	-1527.8920	-1538.9894	-1535.5493	-1545.4759	-1545.7057	-1577.3042	-1587.5285	-1595.8007	-1604.9089	-1613.9032	-1624.4317	-1633.8331	-1642.0397	-1650.8196	-1660.8382	-1668.9637	-1679.4659	-1672.8044	-1690.9858	-1705.9195	-1714.6885	-1723.1358	-1733.1346	-1741.6169	-1737.7084	-1759.2643	-1768.5388	-1777.1064	-1785.9739	-1795.1740	-1802.9319	-1812.2983	-1820.7018	-1828.9237	-1821.0979	-1833.9417	-1847.4268	-1863.7239	-1870.7005	-1880.2880	-1881.4260	-1883.1110	-1889.6697	-1906.3980	-1921.1435	-1931.4225	-1937.8170	-1945.8573	-1955.1602	-1960.6947	-1968.0784	-1974.4161	-1980.9375	-1989.2119	-2003.4651	-2011.0326	-2019.4033	-2026.7761	-2034.7091	-2043.7604	-2051.6977	-2058.5672	-2051.1506	-2072.5752	-2081.7315	-2089.9074
-771.8824	-824.0235	-841.6950	-855.9941	-870.3063	-884.9665	-898.3618	-911.2056	-924.9532	-938.1099	-944.3994	-953.8140	-962.4013	-979.1274	-1001.3682	-1013.7393	-1025.2066	-1038.2737	-1052.0891	-1062.0880	-1073.9951	-1086.3422	-1097.0216	-1107.2744	-1118.4659	-1132.7957	-1144.5759	-1151.9924	-1159.8401	-1156.4152	-1188.5280	-1201.6826	-1212.3686	-1223.9541	-1235.3338	-1247.0156	-1256.4389	-1268.7750	-1279.7542	-1268.6677	-1282.4679	-1312.8124	-1321.1547	-1332.5388	-1342.9578	-1353.9349	-1364.6231	-1375.5630	-1383.6339	-1391.4465	-1397.4297	-1408.7285	-1413.6130	-1420.9464	-1447.8682	-1456.9217	-1465.6994	-1457.7292	-1487.1371	-1496.4532	-1506.2726	-1515.6500	-1524.2198	-1535.3129	-1538.7443	-1547.7606	-1553.4220	-1573.9669	-1584.1517	-1591.8134	-1601.0988	-1610.1326	-1620.8383	-1630.6752	-1639.2407	-1647.4516	-1657.4111	-1666.1560	-1675.6318	-1677.9691	-1690.7844	-1701.9650	-1711.9836	-1719.5271	-1728.7447	-1738.5313	-1734.3755	-1750.9505	-1765.4969	-1773.7516	-1782.8423	-1791.9089	-1799.3954	-1808.5846	-1817.2835	-1825.4332	-1822.8027	-1823.5139	-1833.0336	-1860.3603	-1868.6544	-1876.3773	-1882.6493	-1887.4156	-1889.1029	-1889.7660	-1915.3486	-1928.0633	-1935.0180	-1942.3645	-1951.9673	-1958.8761	-1966.4634	-1974.1950	-1981.5153	-1973.3416	-1999.8454	-2007.8375	-2016.0178	-2023.6051	-2031.4921	-2040.0729	-2048.0693	-2055.4158	-2048.0496	-2055.0460	-2078.4620	-2086.4848
-769.2781	-821.1567	-838.0469	-852.4445	-867.7218	-881.8939	-895.6131	-908.0258	-921.4452	-934.8711	-945.3930	-955.7135	-966.6797	-981.5587	-997.4904	-1010.5005	-1022.0816	-1035.0217	-1048.9750	-1059.2037	-1070.2179	-1083.1493	-1093.7412	-1088.4102	-1100.1686	-1129.3183	-1141.3392	-1151.3403	-1160.8883	-1164.5889	-1186.4512	-1198.9755	-1209.0947	-1216.1983	-1227.0769	-1243.7286	-1253.2329	-1264.8490	-1276.5832	-1273.0949	-1270.3835	-1309.6896	-1309.1950	-1328.4093	-1340.6359	-1350.4619	-1361.1173	-1372.8844	-1381.6600	-1390.3392	-1399.7866	-1409.4484	-1410.3347	-1422.3382	-1443.9006	-1453.5931	-1463.8524	-1452.2932	-1478.7665	-1492.4966	-1502.5348	-1512.5600	-1520.9875	-1532.1528	-1538.3242	-1546.5220	-1555.6083	-1570.7390	-1580.9063	-1588.3885	-1598.4158	-1594.8137	-1610.6272	-1625.9636	-1635.5313	-1644.4973	-1654.6428	-1663.6744	-1672.4258	-1678.5687	-1686.1450	-1697.8114	-1708.9089	-1717.2927	-1725.7750	-1733.2156	-1737.6821	-1749.4952	-1762.0720	-1770.4537	-1778.8966	-1788.5934	-1796.1653	-1805.0591	-1814.2198	-1822.1812	-1826.1291	-1829.9413	-1838.4674	-1856.7932	-1866.0567	-1872.6832	-1880.9620	-1888.1597	-1892.3221	-1892.1798	-1903.0913	-1923.8790	-1931.8864	-1939.6553	-1948.0085	-1956.1844	-1963.6097	-1972.2386	-1980.2788	-1974.5561	-1991.4485	-2001.6771	-2012.7877	-2020.3837	-2028.3145	-2035.4291	-2044.6860	-2052.5818	-2052.1857	-2054.5558	-2075.2385	-2083.1584
-763.6889	-818.1673	-835.1232	-849.4682	-864.7521	-878.5435	-892.0548	-904.6447	-918.2194	-931.7066	-943.4978	-955.0067	-967.2224	-979.9743	-994.2975	-1007.2463	-1018.8602	-1031.8485	-1045.1847	-1056.2274	-1067.6181	-1080.0286	-1090.9225	-1074.8727	-1089.2221	-1121.5253	-1137.9362	-1149.6858	-1159.8598	-1167.1100	-1183.8995	-1195.7410	-1206.2542	-1212.9660	-1208.8387	-1234.8370	-1250.7446	-1261.3562	-1273.5129	-1277.1413	-1274.2832	-1306.3610	-1298.5659	-1310.5693	-1336.8937	-1347.4638	-1357.3270	-1369.0022	-1379.3862	-1388.1661	-1398.5479	-1408.9867	-1398.4407	-1408.2295	-1438.0970	-1450.2492	-1461.5415	-1460.6486	-1471.1552	-1489.8267	-1499.5017	-1508.3910	-1518.6503	-1529.4873	-1536.2780	-1543.8630	-1555.1487	-1566.9464	-1577.9191	-1586.0228	-1595.5950	-1594.3585	-1592.6362	-1619.1182	-1631.6600	-1641.2103	-1651.2135	-1661.2299	-1669.9529	-1676.7961	-1683.0134	-1684.6853	-1704.5189	-1714.9730	-1722.5843	-1717.1132	-1728.0159	-1748.1384	-1759.2599	-1767.3045	-1775.3754	-1785.6500	-1793.6662	-1802.0937	-1811.1647	-1819.6645	-1826.1291	-1832.6156	-1840.2663	-1853.0991	-1862.0082	-1869.3634	-1877.6991	-1886.9539	-1892.7029	-1896.7624	-1906.2491	-1920.4126	-1928.2318	-1936.9329	-1944.6536	-1953.5101	-1960.4080	-1970.1158	-1977.8541	-1978.8979	-1974.6152	-1983.0472	-2003.3666	-2016.9545	-2025.3448	-2031.9757	-2042.1015	-2049.8901	-2053.0961	-2058.0551	-2072.2338	-2079.9939
-762.0367	-814.2960	-833.3111	-846.4657	-860.5306	-875.3309	-888.4307	-901.6269	-915.4664	-928.5575	-941.1606	-952.9561	-965.1981	-977.5036	-991.5992	-1003.8258	-1015.6170	-1028.7190	-1041.4731	-1053.0498	-1065.1518	-1076.6760	-1088.2614	-1082.1185	-1090.1763	-1103.0048	-1134.8374	-1145.9043	-1157.8508	-1166.0902	-1180.6760	-1192.2177	-1203.0635	-1212.3817	-1212.9091	-1217.8396	-1247.9850	-1258.8636	-1270.3287	-1277.7278	-1281.3759	-1302.7939	-1302.9646	-1298.9992	-1321.1153	-1344.8071	-1354.2895	-1365.3388	-1376.0598	-1385.5706	-1396.4602	-1406.8946	-1401.9334	-1398.9440	-1433.4969	-1447.2489	-1457.9875	-1463.2397	-1472.0568	-1487.1328	-1496.5123	-1504.6423	-1516.1752	-1525.9662	-1531.8705	-1540.4819	-1553.3936	-1563.3968	-1573.8115	-1583.3595	-1591.9534	-1596.5841	-1595.1026	-1611.2268	-1628.8260	-1637.9627	-1646.7404	-1657.5293	-1666.5324	-1673.9490	-1682.0789	-1677.5511	-1700.3916	-1711.0098	-1711.3927	-1714.7082	-1717.1592	-1745.3897	-1756.5047	-1764.6587	-1772.7033	-1782.3061	-1789.7008	-1798.9862	-1807.7442	-1816.9049	-1824.6191	-1831.7314	-1838.9488	-1849.8406	-1856.2592	-1864.0478	-1874.9483	-1884.8202	-1891.3723	-1897.6158	-1907.4790	-1917.5173	-1924.6253	-1933.2892	-1941.7496	-1950.4836	-1957.8388	-1967.1658	-1974.5911	-1979.0774	-1973.2037	-1977.2194	-1988.8465	-2011.3456	-2022.4518	-2030.1659	-2036.6896	-2046.2727	-2052.4265	-2058.0047	-2068.8571	-2076.2868
-760.4173	-810.3481	-830.1467	-843.3472	-856.8454	-872.2430	-885.6536	-898.5806	-912.5711	-924.9948	-938.1625	-950.7108	-962.3707	-974.8206	-988.9402	-1000.8693	-1012.4110	-1025.6093	-1038.3546	-1049.6950	-1061.1098	-1072.8944	-1085.5478	-1087.9200	-1098.0677	-1104.5235	-1131.7627	-1142.4334	-1154.8330	-1164.2848	-1177.0541	-1189.0467	-1199.5642	-1210.1911	-1216.8548	-1222.1814	-1244.3194	-1256.4651	-1266.5362	-1276.0033	-1283.7941	-1299.4347	-1305.0261	-1304.3980	-1315.1650	-1341.6557	-1351.7159	-1362.6361	-1372.5671	-1382.9577	-1393.7553	-1403.9949	-1407.5708	-1399.2876	-1417.5346	-1435.3483	-1454.3219	-1462.7320	-1471.8489	-1483.3709	-1493.3041	-1501.6223	-1512.4265	-1522.3575	-1525.1433	-1536.7463	-1549.9797	-1560.9589	-1570.3232	-1579.2978	-1588.2266	-1596.0261	-1600.8121	-1612.9622	-1626.4998	-1634.5334	-1643.1842	-1653.6295	-1662.6436	-1671.1740	-1679.7592	-1682.6129	-1697.6670	-1706.9612	-1699.4943	-1702.0066	-1716.3364	-1742.7461	-1752.6443	-1761.5884	-1769.8693	-1778.6821	-1774.3644	-1795.5373	-1804.0349	-1813.7908	-1821.7588	-1829.1973	-1837.2156	-1846.9037	-1839.9905	-1846.5164	-1867.2056	-1881.5485	-1888.4967	-1895.8761	-1906.2513	-1914.2609	-1921.7716	-1930.1948	-1935.1231	-1945.3167	-1955.6373	-1963.3996	-1971.1050	-1977.2741	-1979.2787	-1984.1151	-1993.2868	-2008.8376	-2018.7446	-2027.2137	-2020.5369	-2038.1252	-2050.1921	-2055.9564	-2064.8829	-2072.8816
-757.4957	-806.7832	-825.5839	-840.1368	-854.4731	-869.0458	-882.7693	-894.7553	-908.8858	-921.3883	-934.4618	-948.0235	-960.1232	-972.3105	-985.6489	-997.8274	-1009.3078	-1022.7359	-1034.8663	-1046.4364	-1057.6652	-1069.5549	-1082.0441	-1077.8905	-1100.2080	-1109.7057	-1128.6223	-1139.9912	-1151.4891	-1162.2408	-1173.4848	-1185.9194	-1196.7674	-1207.4468	-1217.2291	-1224.8272	-1240.7939	-1248.7510	-1261.1593	-1273.2328	-1283.9188	-1296.0142	-1304.6037	-1309.7005	-1320.0933	-1338.2309	-1349.0219	-1359.2331	-1369.5712	-1380.0033	-1390.5734	-1400.6182	-1408.3717	-1398.9156	-1412.1424	-1427.7677	-1450.6935	-1460.6923	-1469.9121	-1479.4339	-1490.7502	-1498.9305	-1508.8856	-1519.4972	-1524.6663	-1533.1573	-1546.7058	-1558.3657	-1567.3776	-1575.5688	-1585.4582	-1593.9646	-1600.7684	-1612.4151	-1623.1734	-1631.0495	-1641.2190	-1650.3994	-1659.5864	-1668.5348	-1676.5641	-1683.2891	-1695.0869	-1704.5014	-1703.4663	-1694.7761	-1704.4576	-1739.0193	-1748.7818	-1758.2248	-1766.2607	-1775.2682	-1762.3609	-1792.3531	-1800.7982	-1810.3134	-1818.3952	-1826.5646	-1835.3467	-1843.5992	-1834.7405	-1835.3708	-1854.8805	-1877.4934	-1885.2688	-1893.2149	-1903.1219	-1910.6194	-1918.3817	-1927.3717	-1918.1125	-1928.6957	-1951.7769	-1960.4146	-1967.4897	-1974.6546	-1980.2263	-1986.2882	-1995.1382	-2006.5989	-2015.3416	-2023.2921	-2022.3927	-2019.6528	-2044.0339	-2053.3938	-2061.9176	-2070.0563
-754.2569	-803.6866	-822.3122	-834.1471	-851.4728	-865.7653	-879.0818	-891.4026	-905.2487	-918.3726	-931.2580	-944.3579	-957.5037	-969.2379	-981.9789	-994.6411	-1006.3009	-1019.7881	-1031.8025	-1043.1691	-1055.0632	-1066.5720	-1078.5580	-1075.2250	-1091.7826	-1110.5548	-1125.6089	-1136.3912	-1148.3859	-1151.5329	-1168.6047	-1182.7550	-1193.8612	-1204.7004	-1215.3536	-1225.2912	-1237.3165	-1244.2560	-1246.1818	-1262.3673	-1281.0761	-1292.8913	-1302.8026	-1311.5322	-1321.9972	-1334.8673	-1346.1901	-1355.6682	-1366.7765	-1376.5981	-1387.2141	-1397.1627	-1406.9624	-1398.5917	-1403.7914	-1431.6893	-1447.6210	-1457.7030	-1466.8856	-1476.7094	-1487.0781	-1495.8733	-1506.0494	-1516.0155	-1522.9834	-1529.8703	-1541.8869	-1555.1093	-1564.2131	-1572.3190	-1583.1604	-1590.8330	-1598.8666	-1610.1611	-1619.0854	-1628.4825	-1638.8227	-1647.1256	-1657.1091	-1665.5805	-1673.2136	-1681.8382	-1692.2332	-1701.7549	-1705.3636	-1704.3964	-1706.9940	-1736.6033	-1745.7990	-1754.8087	-1762.7023	-1765.3831	-1768.4316	-1789.6351	-1797.5243	-1806.6500	-1815.8764	-1823.2776	-1832.4142	-1840.5267	-1839.9336	-1842.3299	-1858.6840	-1873.9700	-1882.0497	-1890.7924	-1900.1041	-1907.3171	-1914.6001	-1923.4763	-1920.3688	-1916.5588	-1940.3928	-1957.6944	-1964.6601	-1971.7725	-1978.9723	-1986.2860	-1994.6830	-2003.8765	-2012.9869	-2019.6550	-2023.9289	-2009.4810	-2038.6088	-2051.4483	-2059.6723	-2066.8503
-752.4602	-801.3778	-819.3797	-814.9263	-840.5460	-861.9859	-875.5716	-888.7809	-901.5459	-915.1250	-928.5641	-940.5456	-950.1965	-965.7649	-978.7050	-991.2249	-1003.3312	-1016.6105	-1029.1786	-1039.6721	-1052.0147	-1063.5695	-1075.5861	-1080.4269	-1090.9488	-1108.9310	-1122.6370	-1133.1239	-1144.8297	-1139.2296	-1152.1763	-1174.5791	-1190.2787	-1201.4615	-1212.7669	-1223.3894	-1234.6532	-1244.1094	-1239.7128	-1248.3724	-1267.8537	-1290.0879	-1300.2772	-1311.3374	-1321.0912	-1331.3986	-1342.9228	-1352.9392	-1363.3517	-1373.2477	-1384.4130	-1394.0201	-1404.4567	-1406.1374	-1398.8106	-1432.0810	-1444.1742	-1454.6764	-1463.6927	-1473.9629	-1483.1630	-1492.5053	-1502.8762	-1512.2186	-1521.1517	-1527.9226	-1524.9639	-1539.2236	-1554.0063	-1569.5922	-1579.6458	-1588.0778	-1594.2600	-1605.3444	-1616.2536	-1625.7491	-1635.1703	-1643.7248	-1653.5420	-1662.2803	-1670.4453	-1679.6016	-1689.4670	-1697.9602	-1704.2760	-1709.2700	-1715.5573	-1733.7189	-1742.6936	-1751.3641	-1759.9427	-1745.4817	-1758.1898	-1785.9739	-1794.5393	-1803.3696	-1813.3378	-1819.8090	-1828.3919	-1837.6905	-1841.6187	-1845.9977	-1858.9247	-1871.1010	-1878.9158	-1888.2801	-1897.3379	-1904.1898	-1911.6523	-1919.3884	-1923.4238	-1924.1219	-1939.2614	-1954.5299	-1961.8830	-1968.7634	-1977.2129	-1984.6710	-1992.2998	-2000.4297	-2010.0019	-2016.4927	-2023.3840	-2006.6448	-2025.3755	-2048.0431	-2056.5254	-2063.5633
-749.9129	-798.7583	-816.0358	-813.2565	-820.8262	-846.9231	-873.1600	-885.7324	-898.4821	-911.9124	-925.6119	-938.1384	-935.5385	-959.9525	-975.7353	-987.8898	-999.9567	-1013.7744	-1025.9069	-1036.6477	-1048.1259	-1060.4883	-1072.6799	-1080.8427	-1092.1174	-1106.4099	-1118.9058	-1131.1259	-1141.6237	-1143.4554	-1148.2677	-1163.7092	-1186.8035	-1198.4656	-1209.7775	-1220.0871	-1231.5872	-1242.1310	-1245.8382	-1251.7951	-1268.7028	-1285.8380	-1297.3360	-1308.2802	-1318.6161	-1328.4487	-1339.1960	-1350.5057	-1359.9750	-1370.1292	-1381.9488	-1390.8994	-1401.4760	-1408.1595	-1408.3871	-1430.5448	-1441.2527	-1451.4660	-1460.2678	-1470.4177	-1480.0751	-1488.9995	-1498.9984	-1508.7193	-1518.2783	-1526.3907	-1526.5396	-1529.1897	-1536.5012	-1562.9679	-1575.1727	-1585.5217	-1579.3635	-1585.4013	-1609.5352	-1621.6940	-1631.0254	-1641.1315	-1649.3359	-1658.6322	-1668.1497	-1676.6801	-1685.9021	-1694.6776	-1702.0876	-1709.6464	-1717.8945	-1729.9133	-1730.9637	-1745.5101	-1757.2991	-1743.3480	-1743.6718	-1781.3148	-1792.0467	-1799.7784	-1809.6635	-1817.3054	-1825.6280	-1834.4779	-1835.9726	-1838.1326	-1857.3884	-1868.1882	-1875.5544	-1884.7764	-1894.4667	-1900.9007	-1909.0788	-1916.3618	-1923.5617	-1927.8182	-1939.0185	-1950.9278	-1958.4012	-1965.9185	-1974.4292	-1981.8479	-1988.8290	-1996.7729	-2005.5091	-2013.0284	-2021.8499	-2016.1404	-2013.6106	-2040.8257	-2052.7328	-2060.7687
