gold2nd_2019-03-18_13.53.41, 10um, 128 pixels, Left.wsf

Pixels in X: 	128
Lines in Y: 	128
X Range: 	10.000
Y Range: 	10.000
Z-Drive Calibration: 	1.0000
Z-Sense Calibration: 	1.9316
X Calibration: 	0.5952
Y Calibration: 	0.5940
X Offset: 	5.000
Y Offset: 	5.000
Rotation(°): 	0
Scan Rate(Hz): 	0.50
Scan Type: 	Vibrating
Vpp: 	0.200
Phase: 	86.51
Demod Gain : 	4dB
Selected (kHz) : 	149.69
Display Type: 	Z_DRIVE
Samples/Pixel: 	25
XY HV Gain: 	3
Z HV Gain: 	3
Z Sensor Gain: 	640
X GPID: 	100.000000000 %, 256, 4096, 0
Y GPID: 	100.000000000 %, 256, 4096, 0
Z GPID: 	1.0000, 100, 1000, 0
Setpoint: 	877





-1274.7472	-1279.4676	-1285.1334	-1289.5365	-1293.8717	-1298.6775	-1304.0172	-1309.2738	-1313.9220	-1317.0558	-1322.1220	-1326.9014	-1330.8143	-1334.8476	-1339.6205	-1345.2513	-1349.6938	-1354.4798	-1359.3381	-1362.9162	-1367.9758	-1372.0944	-1375.7250	-1380.2265	-1385.6429	-1389.4113	-1392.1184	-1397.0314	-1403.4806	-1406.8136	-1411.1313	-1415.6044	-1419.5699	-1424.5244	-1428.0325	-1432.7463	-1437.0312	-1440.6180	-1445.5770	-1449.6233	-1454.7421	-1460.3138	-1463.4760	-1465.8373	-1471.0720	-1476.1601	-1481.5414	-1484.8327	-1489.2533	-1494.2626	-1498.6942	-1502.4276	-1506.6666	-1511.3673	-1515.5625	-1519.0136	-1521.9592	-1526.0121	-1531.8662	-1534.7439	-1540.7292	-1544.8982	-1549.9884	-1554.3258	-1558.2234	-1562.7053	-1567.8656	-1571.3561	-1575.7701	-1579.3723	-1584.5282	-1589.3120	-1592.3277	-1593.8530	-1600.0462	-1605.5895	-1609.0931	-1598.2342	-1605.1189	-1618.6061	-1626.2634	-1630.6030	-1636.0675	-1640.1576	-1644.2587	-1648.3598	-1652.1961	-1657.1682	-1661.8558	-1665.6089	-1669.5327	-1673.8658	-1678.2076	-1681.9345	-1686.8759	-1690.6597	-1695.4939	-1699.0566	-1703.7398	-1706.9481	-1711.8304	-1715.6317	-1719.2294	-1723.1773	-1727.6439	-1733.3863	-1736.6908	-1740.8400	-1743.9126	-1749.0619	-1753.2046	-1756.1195	-1759.8333	-1763.6718	-1769.1494	-1771.4538	-1761.6956	-1764.8841	-1781.2951	-1789.4622	-1794.7888	-1798.9534	-1804.0808	-1807.1293	-1810.9218	-1816.0887	-1820.0037	-1823.6124
-1274.5502	-1279.8308	-1283.9319	-1289.1053	-1295.0316	-1293.6419	-1288.9193	-1283.3498	-1284.5250	-1305.9583	-1319.0976	-1325.0216	-1330.2497	-1335.5566	-1338.5044	-1331.1273	-1330.8581	-1346.4506	-1355.4187	-1362.2969	-1365.8924	-1371.4182	-1376.8433	-1380.1303	-1384.9316	-1382.0582	-1379.5766	-1393.1907	-1399.9157	-1406.7085	-1411.4793	-1415.9940	-1418.9549	-1423.6841	-1429.4177	-1433.0724	-1437.6834	-1441.5678	-1446.6077	-1450.8817	-1453.9323	-1458.8825	-1464.1238	-1468.6691	-1472.5820	-1476.8056	-1481.5129	-1485.7212	-1480.9133	-1468.4634	-1487.4917	-1500.7622	-1506.2223	-1512.1245	-1515.8119	-1520.9832	-1524.6794	-1528.8308	-1532.6912	-1538.0222	-1542.0992	-1545.4978	-1550.1307	-1554.3302	-1559.3833	-1563.7645	-1566.4694	-1571.6844	-1576.0984	-1579.6896	-1584.8323	-1589.2048	-1593.8136	-1597.8928	-1601.6000	-1605.0620	-1610.2092	-1615.0937	-1619.0001	-1622.7663	-1625.8629	-1631.4040	-1635.4744	-1638.9825	-1644.5126	-1648.7034	-1653.1043	-1652.1042	-1649.7473	-1662.5539	-1668.8981	-1673.7301	-1677.2141	-1682.4356	-1685.8539	-1690.8391	-1693.6184	-1698.7349	-1703.2081	-1706.6067	-1711.0119	-1715.2947	-1720.1136	-1724.1643	-1728.0684	-1731.9135	-1736.8527	-1740.8181	-1744.6522	-1748.3266	-1753.5482	-1757.4041	-1761.7788	-1764.4508	-1770.1713	-1774.0514	-1777.9796	-1782.2273	-1786.1424	-1791.8957	-1794.6378	-1798.7345	-1802.7503	-1807.7005	-1812.1167	-1815.6991	-1820.4524	-1823.9801
-1274.5458	-1279.8024	-1284.2208	-1288.7486	-1293.4012	-1298.2945	-1302.9777	-1306.5776	-1300.8506	-1310.9107	-1320.1414	-1325.1923	-1329.8843	-1334.7294	-1339.1916	-1344.9230	-1348.6171	-1352.5125	-1356.3881	-1359.5679	-1365.8115	-1370.5713	-1374.3638	-1379.1170	-1383.2881	-1387.9144	-1392.6480	-1396.8541	-1401.7890	-1405.8113	-1410.8468	-1415.1536	-1419.9244	-1422.9291	-1427.5816	-1432.9039	-1437.2610	-1441.0688	-1444.4740	-1450.3061	-1453.6413	-1459.2808	-1463.2440	-1466.7280	-1472.3741	-1476.4993	-1480.1758	-1484.8371	-1485.6643	-1478.5082	-1490.7918	-1500.0772	-1506.3492	-1510.9165	-1515.9914	-1518.2936	-1523.7537	-1528.5310	-1532.4220	-1537.5823	-1540.6308	-1544.7931	-1549.6011	-1553.5380	-1558.2322	-1562.8650	-1567.2747	-1570.7980	-1572.9186	-1564.6552	-1574.8422	-1584.9418	-1591.5639	-1595.9998	-1601.0835	-1605.6245	-1608.0492	-1613.8945	-1618.1553	-1622.6153	-1626.6398	-1630.2244	-1634.7807	-1639.1400	-1642.1797	-1647.3006	-1651.6074	-1647.4954	-1649.5175	-1660.4114	-1668.5436	-1673.4194	-1677.2250	-1681.3020	-1684.9939	-1689.8981	-1693.9751	-1698.5073	-1702.2627	-1707.0028	-1711.6488	-1715.9184	-1719.6452	-1724.3219	-1728.1472	-1731.9660	-1735.0298	-1739.6845	-1745.5145	-1748.5870	-1753.0798	-1756.1896	-1760.9953	-1764.9082	-1769.0399	-1773.5174	-1777.8614	-1781.8881	-1786.4313	-1789.1930	-1794.1104	-1798.1502	-1802.5664	-1806.9542	-1810.4819	-1815.6400	-1818.8242	-1823.6234
-1273.5632	-1279.0430	-1282.9822	-1287.3743	-1293.0970	-1297.2878	-1301.7062	-1306.3676	-1310.6459	-1315.2328	-1319.2529	-1325.1726	-1329.0111	-1332.8627	-1336.9178	-1342.2313	-1347.4528	-1351.5211	-1355.1648	-1348.6827	-1343.3299	-1360.8459	-1370.9849	-1377.0840	-1381.9663	-1387.8532	-1391.4093	-1395.6177	-1400.3796	-1404.2203	-1408.8948	-1413.0243	-1418.6923	-1422.9597	-1426.1285	-1431.0240	-1435.3833	-1439.5654	-1444.5594	-1448.4153	-1452.6674	-1458.0597	-1462.8282	-1467.3429	-1470.9735	-1474.9346	-1480.0795	-1483.8129	-1488.1154	-1492.4331	-1497.1470	-1501.7558	-1504.9399	-1510.3387	-1513.9518	-1518.9085	-1523.8478	-1525.9049	-1532.6737	-1536.9433	-1540.5279	-1544.4430	-1547.8941	-1553.2229	-1557.8273	-1557.8251	-1546.6336	-1561.3244	-1572.4065	-1577.5427	-1583.7753	-1588.1128	-1591.1853	-1596.1289	-1599.4706	-1603.3660	-1610.4565	-1613.1745	-1616.6234	-1622.0923	-1625.2852	-1629.4432	-1633.3189	-1636.6540	-1641.3919	-1646.3903	-1650.9006	-1655.1176	-1659.4485	-1663.9304	-1668.1803	-1672.0625	-1676.0017	-1667.2415	-1658.6957	-1677.0981	-1689.7187	-1697.2993	-1702.1314	-1705.1076	-1710.6946	-1712.1499	-1698.0259	-1699.5162	-1715.8068	-1713.0537	-1712.7123	-1728.2457	-1726.8561	-1741.0260	-1750.3509	-1756.1830	-1760.3673	-1764.4289	-1769.0793	-1773.3314	-1777.2443	-1781.6321	-1786.9565	-1790.4229	-1794.2176	-1798.4391	-1802.0369	-1806.9849	-1810.6220	-1815.0207	-1818.4128	-1823.7656
-1272.4581	-1277.4630	-1282.0630	-1285.9847	-1282.8727	-1283.4855	-1297.5723	-1304.7569	-1310.1710	-1315.2832	-1320.1633	-1324.4701	-1328.0219	-1333.0465	-1337.3402	-1342.4020	-1346.7635	-1351.0090	-1356.0424	-1360.9641	-1364.6538	-1369.0569	-1374.9743	-1377.9353	-1382.2464	-1387.4308	-1391.7070	-1396.3705	-1399.9770	-1404.5551	-1409.2252	-1414.4052	-1418.1452	-1421.7342	-1426.4831	-1430.8949	-1435.1120	-1439.2437	-1444.0867	-1449.5949	-1452.8666	-1456.5738	-1461.2591	-1465.5550	-1463.7211	-1471.6016	-1477.7423	-1482.6903	-1487.5354	-1491.8510	-1496.2388	-1500.7206	-1505.0165	-1508.6427	-1513.1596	-1516.8865	-1522.1518	-1526.2047	-1530.3955	-1534.6936	-1537.9806	-1542.5828	-1547.6774	-1550.9360	-1556.9388	-1560.6941	-1564.6114	-1568.6359	-1572.8552	-1577.7419	-1581.8255	-1585.7427	-1591.1043	-1595.5578	-1599.1052	-1601.8604	-1603.5914	-1609.9378	-1615.7109	-1620.6282	-1623.5454	-1630.2463	-1633.4808	-1637.9167	-1641.7114	-1645.5827	-1650.5110	-1653.5092	-1658.6257	-1663.2126	-1666.7907	-1670.1039	-1662.1994	-1660.5427	-1666.6178	-1677.1550	-1689.6749	-1695.4107	-1702.1445	-1704.6108	-1709.0971	-1713.7672	-1716.4305	-1721.3478	-1712.3228	-1701.4311	-1707.3004	-1708.8629	-1717.2599	-1735.4718	-1747.1711	-1755.5265	-1756.6294	-1745.8603	-1742.8096	-1758.9207	-1773.3030	-1779.6319	-1784.5077	-1790.0597	-1792.9265	-1797.1786	-1801.4022	-1805.0394	-1811.1669	-1814.4277	-1817.0297	-1822.3016
-1271.2763	-1276.3338	-1281.5531	-1286.0197	-1289.7181	-1294.1059	-1300.2137	-1305.4594	-1310.1316	-1311.6766	-1313.5149	-1321.7412	-1326.1705	-1332.2237	-1336.0665	-1340.9948	-1346.5447	-1349.8360	-1354.3267	-1358.2746	-1364.5531	-1368.7439	-1372.1557	-1377.3203	-1381.4586	-1385.3080	-1389.9037	-1394.4250	-1399.3555	-1403.4500	-1408.0085	-1411.6784	-1417.5324	-1421.5919	-1425.1744	-1429.7635	-1433.2409	-1439.1846	-1443.2047	-1447.2402	-1452.0503	-1456.5628	-1460.5567	-1458.6418	-1442.6117	-1455.9194	-1473.3020	-1480.7273	-1484.5789	-1488.9229	-1494.8141	-1499.8934	-1503.7450	-1508.6646	-1513.4441	-1517.9128	-1517.4270	-1518.3943	-1527.9073	-1533.4549	-1538.5014	-1542.8739	-1547.7409	-1551.9514	-1556.6696	-1560.9261	-1565.0513	-1569.6666	-1572.2490	-1577.0088	-1582.3551	-1586.0622	-1590.0101	-1594.8815	-1598.2626	-1602.9612	-1606.9616	-1610.7103	-1616.2602	-1620.4991	-1615.0368	-1614.8771	-1628.8698	-1636.7962	-1641.9412	-1645.9263	-1648.5721	-1654.5180	-1658.4659	-1662.1359	-1665.5476	-1669.9266	-1674.7368	-1679.5644	-1683.5408	-1688.2262	-1692.4389	-1696.9908	-1699.9364	-1702.9039	-1709.3838	-1713.6468	-1715.0890	-1717.9842	-1724.6545	-1729.7382	-1734.0953	-1737.9185	-1743.1751	-1747.3921	-1750.2283	-1755.3361	-1757.8878	-1757.2794	-1760.9756	-1768.8102	-1774.4497	-1779.3299	-1785.1051	-1788.4906	-1792.2131	-1796.9794	-1800.2883	-1801.9559	-1792.4844	-1784.9431	-1804.5907	-1818.2136
-1271.7906	-1275.7079	-1279.8790	-1285.0896	-1290.5650	-1295.5524	-1299.2662	-1303.9362	-1308.9105	-1312.9219	-1317.5000	-1321.5814	-1326.9540	-1332.0026	-1335.6814	-1339.9488	-1344.7545	-1349.1379	-1354.6112	-1357.3117	-1362.4347	-1368.9584	-1371.3503	-1376.3706	-1380.3732	-1385.6232	-1389.4551	-1393.7400	-1398.0402	-1402.0582	-1407.4854	-1411.3918	-1415.2062	-1420.1323	-1424.8374	-1429.6497	-1432.9542	-1437.0181	-1442.5591	-1447.1198	-1449.8137	-1454.6414	-1460.4538	-1464.4542	-1468.2096	-1473.1794	-1477.1952	-1481.9812	-1485.6972	-1489.2555	-1494.6128	-1499.9678	-1503.6072	-1507.8374	-1511.6649	-1511.6671	-1498.5082	-1495.0483	-1513.1640	-1528.7717	-1536.5778	-1541.8628	-1545.2352	-1551.3627	-1554.8270	-1559.9391	-1562.9854	-1567.4235	-1572.8048	-1576.1422	-1579.8318	-1584.1890	-1588.9028	-1593.4044	-1598.0460	-1600.5014	-1605.8718	-1610.6075	-1614.6604	-1618.6543	-1623.0705	-1627.1410	-1631.7476	-1635.7524	-1640.7376	-1644.3747	-1648.7778	-1652.8461	-1657.6146	-1659.9650	-1655.7217	-1658.4572	-1669.2876	-1677.4439	-1682.5144	-1686.7424	-1690.7757	-1695.3932	-1690.6378	-1681.6500	-1697.3497	-1708.9526	-1716.1657	-1720.4309	-1724.2256	-1729.0204	-1733.4104	-1738.0629	-1741.3456	-1745.5364	-1744.1095	-1749.4317	-1757.4151	-1761.9473	-1766.7946	-1770.5937	-1775.1675	-1779.0673	-1782.5162	-1773.1585	-1785.5778	-1794.4759	-1798.7017	-1804.0042	-1797.2005	-1786.6326	-1803.2492	-1818.0342
-1268.9741	-1275.1367	-1279.7302	-1284.0129	-1289.0244	-1294.1518	-1298.0034	-1302.5466	-1307.3042	-1311.8298	-1316.4605	-1321.0453	-1325.0260	-1329.4334	-1334.1320	-1338.9049	-1343.3736	-1347.3763	-1352.3833	-1357.3992	-1361.6075	-1366.4045	-1370.3174	-1375.4864	-1379.3446	-1380.8021	-1366.3870	-1365.6123	-1386.9953	-1399.2285	-1404.1284	-1410.3698	-1414.8254	-1419.3882	-1423.7213	-1427.9099	-1432.5253	-1435.8079	-1440.4977	-1445.2181	-1449.1200	-1454.7027	-1458.2173	-1462.7298	-1467.9754	-1471.4506	-1476.6218	-1481.0971	-1484.6008	-1488.7259	-1493.6061	-1497.6656	-1501.7492	-1506.2508	-1510.8617	-1515.0154	-1519.4053	-1524.8567	-1528.7783	-1532.3651	-1536.8864	-1541.2851	-1546.4038	-1549.9118	-1554.2558	-1558.8230	-1563.1999	-1566.4912	-1570.8637	-1574.9320	-1579.4970	-1584.4209	-1587.9530	-1592.0782	-1596.7154	-1599.8077	-1600.2760	-1597.2538	-1607.5328	-1616.2974	-1621.7575	-1626.9068	-1630.8328	-1635.5510	-1639.3654	-1643.5978	-1647.6114	-1643.6547	-1642.2169	-1655.3846	-1650.7802	-1651.9226	-1666.4099	-1675.8507	-1681.8097	-1685.9371	-1691.1455	-1694.0233	-1698.4855	-1702.9258	-1707.7403	-1711.6094	-1715.0255	-1720.1048	-1724.0746	-1728.4339	-1732.4672	-1736.2641	-1740.4658	-1744.9367	-1748.6352	-1752.1454	-1756.4434	-1761.5512	-1757.9512	-1739.4832	-1749.3880	-1771.0598	-1773.4540	-1762.1442	-1765.2846	-1785.5625	-1797.3952	-1802.2294	-1808.3220	-1812.6332	-1817.1719	-1820.0191
-1268.8122	-1274.9726	-1279.4916	-1285.3128	-1289.4095	-1294.4670	-1298.2748	-1303.9209	-1308.1642	-1311.7007	-1316.3730	-1320.5200	-1326.4835	-1330.2081	-1335.2918	-1338.8786	-1343.6144	-1348.5864	-1352.5803	-1357.4955	-1361.0889	-1366.3367	-1370.1708	-1374.0618	-1379.1783	-1383.6405	-1386.8137	-1390.0284	-1396.0378	-1401.1894	-1404.8002	-1409.5360	-1413.6765	-1418.4997	-1423.3099	-1426.6253	-1431.9957	-1437.1078	-1440.2351	-1444.2792	-1447.8989	-1453.4640	-1458.4405	-1462.2549	-1465.6710	-1471.2624	-1475.7355	-1479.9066	-1483.8305	-1487.9447	-1492.8599	-1496.6086	-1501.2371	-1505.4323	-1509.6888	-1514.0174	-1518.0047	-1522.6113	-1526.9160	-1532.5599	-1536.1795	-1539.7729	-1544.6793	-1549.4172	-1553.8619	-1557.3546	-1560.5891	-1566.0645	-1569.9489	-1574.3761	-1578.7704	-1583.7994	-1587.9705	-1592.3277	-1595.8248	-1600.5561	-1606.4254	-1608.7495	-1602.0749	-1599.3415	-1594.7065	-1609.4433	-1625.7623	-1633.9229	-1638.6192	-1643.8342	-1647.0402	-1651.1807	-1655.4875	-1659.9759	-1664.3440	-1668.0490	-1672.6403	-1677.4570	-1681.2539	-1685.9437	-1689.9025	-1693.9511	-1698.6890	-1701.4836	-1706.1690	-1710.6487	-1714.7716	-1718.5948	-1722.4989	-1727.3025	-1731.8303	-1735.7651	-1739.6255	-1743.9848	-1748.1865	-1752.3642	-1756.3931	-1759.5947	-1765.2409	-1768.4600	-1772.5655	-1777.0386	-1780.8705	-1780.4328	-1770.2567	-1785.2933	-1796.3732	-1801.7764	-1806.9061	-1810.8649	-1814.4277	-1819.6580
-1264.5229	-1272.7885	-1278.3952	-1283.7853	-1278.5506	-1271.7053	-1277.4761	-1296.1126	-1304.9648	-1311.4294	-1315.8259	-1319.6250	-1324.0499	-1328.8448	-1333.5542	-1337.8063	-1341.8308	-1347.0130	-1352.3352	-1355.4559	-1359.8021	-1364.3824	-1369.2473	-1374.0180	-1377.8280	-1382.7191	-1386.5336	-1391.7967	-1395.8256	-1399.8851	-1405.5334	-1409.8117	-1412.8252	-1418.2021	-1422.6096	-1427.9559	-1432.0263	-1435.4271	-1435.3790	-1421.2418	-1421.3162	-1441.1761	-1455.4139	-1461.7187	-1467.3408	-1471.4331	-1475.3066	-1480.5281	-1484.3776	-1488.7719	-1492.9364	-1497.4927	-1496.2803	-1482.9770	-1495.7901	-1511.1791	-1518.7663	-1522.8499	-1527.5834	-1531.0783	-1522.3400	-1532.2426	-1538.7487	-1542.8060	-1552.2666	-1557.1248	-1561.8824	-1565.1082	-1570.0868	-1574.2995	-1577.8032	-1582.2150	-1586.4737	-1591.4676	-1593.2906	-1579.3132	-1579.9566	-1600.2366	-1609.7584	-1612.7281	-1618.6981	-1623.5345	-1629.1105	-1632.4457	-1637.6322	-1641.8274	-1645.3245	-1650.1193	-1654.0891	-1657.9910	-1660.4968	-1666.2764	-1670.3884	-1675.8419	-1679.8511	-1683.9610	-1687.8585	-1691.8546	-1697.0324	-1701.2735	-1705.4052	-1710.1388	-1714.4368	-1718.4219	-1722.2254	-1726.6307	-1729.6660	-1735.2289	-1739.1725	-1743.2473	-1746.9939	-1751.0271	-1754.7474	-1743.6324	-1739.3147	-1758.9382	-1770.4515	-1776.3689	-1781.5314	-1785.7813	-1789.8014	-1794.9945	-1797.3755	-1801.5116	-1806.6238	-1810.9940	-1813.9002	-1818.6207
-1266.1182	-1270.7336	-1277.8044	-1282.0499	-1284.8204	-1278.2180	-1287.2715	-1298.8110	-1305.0764	-1310.0113	-1314.2962	-1319.3055	-1323.4547	-1327.8884	-1329.6545	-1315.2460	-1313.3442	-1332.8036	-1346.7876	-1354.4952	-1359.6642	-1363.9382	-1368.2297	-1372.9391	-1377.0380	-1381.1172	-1386.1856	-1389.8009	-1394.8605	-1399.2220	-1403.4150	-1407.4898	-1412.4706	-1417.3092	-1421.0930	-1425.8703	-1429.7591	-1434.4620	-1438.7622	-1437.5411	-1428.3892	-1443.8897	-1454.5604	-1460.0577	-1464.5265	-1469.3103	-1473.0000	-1478.2938	-1482.4321	-1486.4215	-1491.5971	-1495.1643	-1498.4950	-1503.0316	-1508.0343	-1512.9407	-1516.7114	-1520.6965	-1525.8721	-1529.4655	-1533.7766	-1538.7815	-1540.2522	-1529.1109	-1530.3999	-1548.8898	-1558.7705	-1564.5611	-1569.1173	-1572.3781	-1577.9038	-1581.8255	-1585.7515	-1590.5441	-1594.0631	-1599.1117	-1602.6504	-1606.2701	-1611.1546	-1614.2556	-1619.8251	-1624.1757	-1627.1804	-1633.6055	-1636.1550	-1641.6239	-1645.9307	-1649.2877	-1655.2424	-1657.5927	-1662.1468	-1666.6440	-1670.7145	-1674.8900	-1678.9101	-1682.6960	-1688.1233	-1692.4695	-1696.5159	-1700.5404	-1704.6261	-1708.6047	-1712.9618	-1717.5159	-1721.1618	-1725.7487	-1729.4362	-1732.6882	-1738.0958	-1742.1268	-1746.9588	-1749.8935	-1753.6816	-1758.5202	-1762.6476	-1766.7027	-1771.5479	-1775.7015	-1779.2861	-1784.0415	-1786.5363	-1791.9089	-1797.0385	-1800.1132	-1804.6783	-1809.4665	-1812.9111	-1817.6884
-1262.4942	-1250.5345	-1254.2351	-1274.1672	-1284.3696	-1290.2871	-1295.3489	-1300.2203	-1304.1594	-1308.4641	-1305.7307	-1312.6352	-1321.4589	-1326.5316	-1331.3483	-1335.0664	-1323.7261	-1326.5097	-1343.7063	-1352.0507	-1357.8434	-1363.7018	-1367.9277	-1371.6261	-1376.5019	-1380.7933	-1385.6297	-1389.2822	-1393.6765	-1399.2942	-1403.0408	-1407.8596	-1411.2955	-1415.7401	-1421.4541	-1424.7827	-1429.5118	-1434.2213	-1438.3289	-1443.2266	-1446.6318	-1451.4113	-1455.9325	-1460.4144	-1463.9990	-1468.9908	-1473.5274	-1477.8167	-1482.2964	-1485.8416	-1490.4482	-1494.6850	-1498.8386	-1502.8412	-1507.3078	-1512.0938	-1516.6807	-1520.0706	-1524.3424	-1529.6602	-1533.5578	-1538.0572	-1541.6724	-1535.7353	-1528.7739	-1546.0208	-1556.7090	-1563.4209	-1567.6730	-1572.4000	-1575.7548	-1580.3942	-1585.6355	-1588.5526	-1592.1657	-1597.5886	-1601.5256	-1606.4539	-1609.7321	-1614.1046	-1618.8272	-1622.5628	-1627.2197	-1631.0166	-1635.6254	-1639.7725	-1645.0203	-1647.4254	-1650.1259	-1657.5227	-1661.6172	-1666.3136	-1669.7319	-1673.5156	-1678.8685	-1682.5450	-1686.3726	-1691.2812	-1695.7368	-1699.8467	-1702.9520	-1708.6988	-1712.3403	-1716.4939	-1720.6847	-1724.7727	-1729.8082	-1734.1413	-1737.6537	-1741.5316	-1745.3394	-1750.5281	-1754.2441	-1757.6777	-1757.8331	-1751.2241	-1763.7637	-1772.5545	-1779.0279	-1783.5207	-1788.2608	-1791.2523	-1794.4693	-1797.8045	-1802.9253	-1806.9301	-1811.9788	-1816.5854
-1265.4858	-1271.1713	-1275.9770	-1280.0956	-1284.3412	-1287.8142	-1284.0567	-1294.8302	-1301.9995	-1306.1006	-1301.7281	-1306.0502	-1315.3663	-1324.2950	-1330.7946	-1335.9505	-1339.4695	-1343.9076	-1348.3238	-1352.9304	-1357.8566	-1361.3624	-1366.4483	-1371.9784	-1375.2829	-1378.9376	-1384.0475	-1388.6191	-1393.1229	-1396.3552	-1399.8719	-1405.4699	-1409.6826	-1413.7924	-1418.5916	-1423.0560	-1428.5511	-1431.9541	-1437.4886	-1441.2745	-1446.1175	-1450.3390	-1454.0330	-1458.6549	-1463.3316	-1468.0323	-1469.2666	-1460.7930	-1474.9958	-1483.6554	-1489.1155	-1492.4331	-1498.4622	-1500.9636	-1498.5650	-1507.5047	-1514.3348	-1520.1975	-1520.9941	-1507.8899	-1519.9218	-1532.8531	-1540.1734	-1544.8588	-1549.1699	-1554.5578	-1555.1640	-1540.6570	-1550.6274	-1566.7757	-1574.9932	-1580.2038	-1583.7535	-1587.4125	-1593.0323	-1597.7659	-1600.3001	-1604.6725	-1597.2844	-1589.9270	-1592.6537	-1600.4664	-1620.5954	-1624.2610	-1613.5859	-1628.3118	-1641.3394	-1638.8993	-1626.3312	-1633.0365	-1653.9906	-1663.8494	-1669.6925	-1673.6623	-1677.4723	-1683.5364	-1686.5739	-1680.6346	-1668.5239	-1671.5045	-1691.1061	-1704.4139	-1711.1432	-1716.5508	-1720.8489	-1724.6129	-1726.6744	-1726.3330	-1728.0291	-1736.4282	-1743.1663	-1747.1098	-1751.7909	-1756.7673	-1760.7174	-1765.8558	-1769.3244	-1774.4606	-1778.0343	-1781.4461	-1786.1336	-1791.4209	-1794.1979	-1798.1809	-1800.2883	-1805.2276	-1810.9415	-1814.2198
