SIC1.5_0.5_128_90_scan_2019-04-08_13.32.10, 2um, 128 pixels, Left.wsf

Pixels in X: 	128
Lines in Y: 	128
X Range: 	2.000
Y Range: 	2.000
Z-Drive Calibration: 	1.0000
Z-Sense Calibration: 	1.9316
X Calibration: 	0.5952
Y Calibration: 	0.5940
X Offset: 	9.167
Y Offset: 	9.167
Rotation(°): 	90
Scan Rate(Hz): 	0.50
Scan Type: 	Vibrating
Vpp: 	0.200
Phase: 	86.51
Demod Gain : 	4dB
Selected (kHz) : 	149.67
Display Type: 	Z_DRIVE
Samples/Pixel: 	25
XY HV Gain: 	5
Z HV Gain: 	3
Z Sensor Gain: 	640
X GPID: 	100.000000000 %, 256, 4096, 0
Y GPID: 	100.000000000 %, 256, 4096, 0
Z GPID: 	1.0000, 100, 1000, 0
Setpoint: 	752





-1443.2135	-1463.6905	-1470.3695	-1476.1404	-1478.2653	-1481.8171	-1485.4827	-1486.9030	-1490.1265	-1491.9735	-1496.4051	-1497.0922	-1500.8344	-1502.2306	-1503.6509	-1505.2266	-1507.7651	-1510.0148	-1511.4701	-1514.6346	-1516.4313	-1516.2168	-1518.7357	-1521.1954	-1522.7536	-1526.5111	-1528.0102	-1528.4675	-1531.1090	-1532.6934	-1533.3193	-1535.7725	-1537.8930	-1538.7750	-1539.7182	-1542.9111	-1545.5459	-1547.1063	-1549.3450	-1549.6120	-1551.9799	-1553.0675	-1554.7810	-1557.4115	-1558.0746	-1559.8407	-1560.6985	-1562.4536	-1564.7143	-1567.5658	-1567.4432	-1570.4063	-1571.1022	-1573.1178	-1574.6037	-1575.0939	-1578.0067	-1578.3984	-1580.2432	-1581.4009	-1582.9394	-1586.0469	-1587.7320	-1587.6860	-1589.0998	-1591.0759	-1593.2468	-1594.1222	-1595.7263	-1596.4616	-1597.4967	-1600.4292	-1600.5977	-1601.8954	-1605.0030	-1607.1958	-1608.8305	-1609.2485	-1609.4367	-1609.9488	-1612.2225	-1614.7086	-1615.6102	-1616.6782	-1618.6040	-1621.7071	-1620.4094	-1623.7839	-1625.4559	-1625.0073	-1627.3401	-1628.6619	-1628.7341	-1631.4259	-1632.8943	-1634.4700	-1634.6450	-1636.9472	-1637.7110	-1639.6740	-1640.2627	-1642.0769	-1642.9479	-1645.7512	-1645.9723	-1647.9024	-1648.7340	-1648.8347	-1651.4980	-1653.4698	-1655.0739	-1656.8312	-1657.6737	-1658.3018	-1660.0941	-1660.9804	-1662.8143	-1662.4554	-1663.9960	-1664.7904	-1667.9002	-1670.5350	-1670.9224	-1671.2178	-1671.9466	-1673.3450	-1674.7499	-1675.4305
-1443.2091	-1463.4716	-1469.3322	-1474.8973	-1477.4862	-1480.4122	-1484.0559	-1486.7235	-1489.8026	-1492.2755	-1495.1708	-1495.1380	-1499.8059	-1502.1256	-1503.2833	-1504.7014	-1505.5789	-1509.0563	-1510.7370	-1513.9321	-1515.6391	-1515.6325	-1518.7138	-1519.8955	-1522.5544	-1525.5963	-1526.9225	-1527.5987	-1527.2967	-1531.6298	-1532.8072	-1534.3566	-1537.5670	-1537.4247	-1539.4950	-1541.8716	-1544.9835	-1545.9836	-1548.8942	-1549.5267	-1551.4371	-1551.8442	-1554.1595	-1555.7855	-1557.1577	-1558.1074	-1560.6722	-1562.1100	-1563.6157	-1567.1653	-1566.8786	-1569.7323	-1569.9292	-1571.6318	-1574.0063	-1574.8532	-1575.5009	-1577.8447	-1578.8667	-1580.2060	-1582.7884	-1584.3006	-1586.1038	-1587.6379	-1588.5373	-1589.8832	-1591.8046	-1593.4919	-1594.1528	-1595.6037	-1597.1881	-1598.9367	-1600.1250	-1601.4358	-1604.0094	-1605.0817	-1608.0186	-1608.0120	-1607.6356	-1609.2682	-1611.1874	-1612.6996	-1614.2403	-1615.5971	-1618.6981	-1619.6544	-1620.1512	-1622.3024	-1624.2304	-1625.1933	-1625.6682	-1627.6268	-1628.0951	-1630.1216	-1630.9860	-1633.8025	-1634.0345	-1636.0850	-1637.1376	-1640.2145	-1639.0000	-1640.7398	-1642.7531	-1644.4294	-1644.8562	-1645.9832	-1646.8476	-1647.9528	-1650.9772	-1652.6601	-1653.6055	-1656.1703	-1656.3716	-1657.0347	-1658.5556	-1659.7658	-1661.2583	-1661.2168	-1663.2979	-1663.9260	-1665.6571	-1669.7166	-1670.4103	-1668.7186	-1671.0821	-1672.3536	-1673.8855	-1674.7390
-1442.7080	-1462.5175	-1469.6999	-1473.7966	-1476.2629	-1480.3596	-1483.7035	-1485.7803	-1489.4722	-1492.5775	-1494.5077	-1494.7003	-1498.1055	-1501.8958	-1503.5940	-1504.4957	-1504.4869	-1508.5858	-1509.8923	-1512.9210	-1515.2780	-1515.8579	-1517.6064	-1519.5651	-1521.9876	-1524.6488	-1526.0909	-1527.9598	-1525.0186	-1531.1177	-1533.1770	-1534.4922	-1536.6303	-1536.8426	-1539.2280	-1541.3092	-1544.3839	-1545.0141	-1548.8307	-1548.9642	-1550.7587	-1552.0849	-1552.8071	-1555.7461	-1556.3939	-1558.1840	-1559.5430	-1560.5847	-1563.4975	-1565.7187	-1566.8458	-1568.9510	-1568.8985	-1571.1110	-1573.8399	-1574.5512	-1575.7942	-1577.6828	-1578.4356	-1580.2148	-1582.5586	-1583.3924	-1586.3774	-1587.2462	-1588.9925	-1589.8701	-1592.3452	-1593.0301	-1594.0696	-1595.5337	-1597.3260	-1598.6325	-1601.0266	-1601.8801	-1602.4403	-1604.8060	-1606.9441	-1607.6006	-1607.5459	-1609.6512	-1611.3669	-1612.4086	-1613.8179	-1615.7743	-1618.6959	-1619.5187	-1620.0899	-1621.4883	-1624.2741	-1624.6024	-1625.6550	-1627.4167	-1628.3840	-1629.7474	-1631.0101	-1633.4414	-1632.9906	-1636.3520	-1636.9844	-1639.1291	-1638.6170	-1639.5252	-1642.1010	-1644.2128	-1643.9786	-1645.9000	-1646.7798	-1647.9287	-1649.7473	-1652.5835	-1654.3254	-1654.7544	-1656.3650	-1656.6561	-1659.1378	-1659.0087	-1661.0067	-1660.5690	-1663.7247	-1663.9304	-1664.8123	-1668.7799	-1669.3139	-1668.8587	-1670.4387	-1671.5701	-1673.1786	-1673.9336
-1442.7977	-1461.8216	-1468.9864	-1472.2494	-1476.3767	-1480.0598	-1482.5415	-1484.8612	-1491.1157	-1491.9976	-1493.5054	-1494.3589	-1497.4446	-1500.3727	-1503.0579	-1503.8916	-1504.9268	-1507.2027	-1509.1504	-1512.6738	-1514.5821	-1514.9453	-1517.9084	-1517.8450	-1521.2108	-1523.1300	-1525.6051	-1527.0341	-1523.6399	-1530.7238	-1532.1660	-1533.8620	-1536.4793	-1536.3612	-1537.9696	-1541.3223	-1543.5501	-1545.4606	-1548.0276	-1548.2639	-1550.0212	-1551.8923	-1551.9470	-1554.8861	-1556.1269	-1557.8776	-1558.5845	-1560.3243	-1562.8300	-1565.4999	-1567.1259	-1567.8743	-1568.6031	-1570.9140	-1572.7632	-1573.4176	-1575.2996	-1576.5186	-1578.1446	-1579.0462	-1581.7139	-1582.7752	-1586.3533	-1587.0011	-1588.0581	-1589.2683	-1591.9578	-1592.4677	-1593.2030	-1594.4876	-1595.4265	-1599.1490	-1600.1950	-1600.9106	-1601.9282	-1605.3290	-1606.2307	-1606.6071	-1608.0273	-1608.8830	-1610.2114	-1611.7148	-1613.4853	-1615.5030	-1617.1705	-1619.1839	-1619.7988	-1620.6085	-1623.7599	-1623.5104	-1625.5259	-1627.2832	-1627.0972	-1629.7189	-1630.7847	-1631.7038	-1634.0476	-1635.7743	-1636.8947	-1638.7199	-1638.4988	-1638.3172	-1641.8777	-1643.6547	-1644.2172	-1644.6899	-1645.9635	-1647.0052	-1650.3688	-1651.7913	-1654.1088	-1654.6471	-1656.1768	-1655.8245	-1658.6410	-1658.4615	-1660.0832	-1659.8381	-1662.8821	-1663.4358	-1665.7336	-1667.7404	-1668.2372	-1667.9593	-1670.6773	-1671.5133	-1672.9532	-1673.0517
-1441.2177	-1460.9987	-1468.0717	-1471.3018	-1476.4643	-1479.1363	-1482.0163	-1485.8219	-1490.3738	-1491.6037	-1493.0459	-1494.3983	-1496.7596	-1499.4317	-1502.2547	-1503.1782	-1504.7189	-1505.8065	-1508.9228	-1511.9975	-1513.6957	-1514.0087	-1516.4925	-1518.5124	-1520.5105	-1523.0293	-1524.9573	-1525.5679	-1523.0884	-1530.0191	-1531.2950	-1533.2383	-1536.1664	-1534.7439	-1538.0353	-1539.8385	-1542.0532	-1544.9529	-1546.7736	-1548.5703	-1549.0080	-1550.9885	-1552.5839	-1554.3827	-1555.0852	-1556.8469	-1558.1206	-1560.1886	-1561.5826	-1564.5195	-1566.3862	-1567.1828	-1568.4849	-1569.8198	-1571.8332	-1573.2031	-1572.9121	-1576.0108	-1577.4705	-1579.0374	-1580.3111	-1581.5541	-1584.6573	-1586.3314	-1587.6379	-1588.2178	-1591.1984	-1592.2051	-1592.7916	-1592.9557	-1595.2404	-1597.4507	-1599.9390	-1600.1009	-1602.2105	-1603.5586	-1605.2437	-1606.8544	-1607.5262	-1608.5000	-1609.8240	-1611.7083	-1612.2007	-1614.4832	-1616.2886	-1617.1049	-1619.7025	-1620.3985	-1623.1624	-1623.4228	-1625.3990	-1626.0249	-1627.0250	-1629.4300	-1629.4826	-1631.3712	-1632.0080	-1634.0038	-1636.5118	-1638.8730	-1638.3894	-1637.9649	-1640.7223	-1643.1952	-1643.2499	-1644.4688	-1644.8190	-1646.7032	-1649.4759	-1650.6861	-1652.6491	-1654.3583	-1654.8485	-1655.6057	-1657.4264	-1657.6190	-1659.6717	-1659.6674	-1662.3876	-1663.0725	-1665.3507	-1667.2655	-1667.7929	-1668.1475	-1669.3358	-1671.5505	-1671.7649	-1673.0889
-1440.8172	-1460.5632	-1467.8375	-1471.5228	-1475.1818	-1479.0356	-1481.0183	-1484.2222	-1488.8288	-1491.2864	-1493.0284	-1493.1181	-1495.8120	-1498.8167	-1501.2984	-1502.7974	-1504.4978	-1505.5417	-1508.4545	-1510.9383	-1512.5009	-1513.8905	-1516.8317	-1517.8472	-1520.4273	-1521.6703	-1523.9507	-1526.1741	-1524.0995	-1529.4676	-1530.5794	-1532.7087	-1534.4025	-1535.0415	-1538.0178	-1539.3418	-1541.1275	-1544.1125	-1546.3753	-1547.3470	-1548.6710	-1549.8877	-1551.9667	-1553.1113	-1553.8335	-1556.8447	-1558.3153	-1559.4577	-1561.2719	-1564.2328	-1565.1694	-1566.8895	-1567.9312	-1569.6885	-1571.1219	-1572.2752	-1572.6976	-1576.0305	-1576.8140	-1578.3875	-1580.7816	-1581.9787	-1583.1385	-1585.5523	-1587.2330	-1588.1193	-1590.0036	-1591.3254	-1592.2073	-1592.5334	-1594.9559	-1596.3040	-1599.1621	-1600.8647	-1601.1623	-1602.6657	-1604.5653	-1606.3510	-1607.0054	-1607.8917	-1609.9006	-1610.9511	-1613.1614	-1614.2753	-1615.6868	-1617.3828	-1619.3699	-1619.6522	-1622.2302	-1623.5213	-1624.1166	-1625.4646	-1626.1037	-1628.4299	-1628.7188	-1630.8853	-1631.8395	-1635.3453	-1636.4789	-1638.1399	-1638.7877	-1637.8773	-1639.3589	-1642.9632	-1642.9982	-1643.9305	-1644.8168	-1646.4690	-1647.8718	-1650.8634	-1651.8722	-1653.3319	-1654.3867	-1655.1505	-1656.9472	-1657.6146	-1659.4989	-1660.3151	-1662.3810	-1663.5737	-1663.3155	-1666.8454	-1667.1692	-1668.4123	-1669.0775	-1670.8458	-1671.7956	-1672.6381
-1440.8478	-1460.1059	-1466.7477	-1471.8401	-1474.1752	-1478.5892	-1480.5478	-1482.7078	-1489.1811	-1489.6801	-1492.0283	-1493.5798	-1495.4291	-1497.6153	-1500.3771	-1503.0404	-1503.6400	-1506.0144	-1507.8067	-1509.9754	-1511.4526	-1513.1924	-1516.1030	-1516.6370	-1519.5147	-1520.3726	-1523.4714	-1524.8523	-1525.3994	-1527.8176	-1530.6363	-1531.9712	-1533.2777	-1534.8358	-1537.3153	-1539.5913	-1540.5717	-1544.0797	-1545.8720	-1545.8895	-1548.7104	-1549.7324	-1551.5312	-1552.0740	-1553.9845	-1555.3522	-1557.3502	-1559.6043	-1560.6963	-1562.8869	-1565.1869	-1566.6532	-1567.2156	-1569.2683	-1570.5529	-1571.5443	-1573.4526	-1574.8860	-1575.5710	-1578.0548	-1579.7924	-1581.3156	-1582.8671	-1585.7493	-1585.5151	-1588.1675	-1588.8984	-1590.6054	-1590.7279	-1592.4152	-1593.0695	-1596.2471	-1597.9016	-1600.2060	-1600.7093	-1602.3375	-1604.6747	-1605.0095	-1606.7384	-1606.9441	-1609.1806	-1610.4018	-1612.7303	-1612.6361	-1615.1922	-1616.7941	-1618.3589	-1619.0263	-1621.5364	-1622.5103	-1623.7227	-1623.9612	-1625.1451	-1627.4714	-1628.7057	-1630.4870	-1631.1742	-1634.5378	-1636.0806	-1637.3981	-1637.9867	-1636.2338	-1639.5274	-1641.7946	-1642.6787	-1642.7356	-1644.2719	-1644.7358	-1648.2329	-1650.1171	-1651.8241	-1653.4063	-1654.2445	-1654.4918	-1656.1112	-1657.2032	-1658.0786	-1660.0700	-1661.3481	-1661.6566	-1663.6131	-1665.8168	-1666.7009	-1667.5369	-1668.5786	-1670.0580	-1671.4804	-1671.7802
-1439.5194	-1459.8017	-1466.2400	-1470.3980	-1474.0045	-1478.4623	-1479.6506	-1483.9596	-1486.9708	-1489.3146	-1491.7525	-1493.2166	-1494.5055	-1497.2170	-1499.8081	-1502.2306	-1503.0579	-1504.6554	-1507.1983	-1509.6669	-1510.7348	-1513.0808	-1515.2605	-1517.7377	-1518.6766	-1521.3924	-1522.4385	-1523.1694	-1526.4805	-1527.5900	-1530.9383	-1531.2775	-1532.8050	-1534.4660	-1536.9214	-1540.2456	-1539.8889	-1543.1606	-1544.3729	-1545.4671	-1546.9968	-1548.8701	-1550.7894	-1552.6889	-1552.6583	-1554.9058	-1556.7244	-1559.8407	-1559.4927	-1562.7097	-1564.6136	-1565.3795	-1567.3075	-1568.4783	-1569.5857	-1571.6318	-1572.1899	-1574.4264	-1575.3193	-1577.9082	-1580.0638	-1581.0311	-1582.3594	-1584.9177	-1585.0709	-1587.6729	-1588.2528	-1590.6163	-1590.3515	-1591.5420	-1592.1263	-1596.4594	-1597.6915	-1600.0550	-1601.0419	-1601.9020	-1603.1275	-1605.0664	-1605.9593	-1606.4473	-1609.1216	-1610.0297	-1611.3231	-1612.1284	-1615.1047	-1616.6716	-1618.0240	-1619.3064	-1620.8733	-1621.6743	-1623.8737	-1623.0267	-1625.4362	-1627.0622	-1628.1586	-1629.4782	-1630.1960	-1633.1700	-1635.3978	-1637.0523	-1637.4462	-1636.2907	-1638.8140	-1641.4641	-1641.9084	-1642.6240	-1644.2631	-1645.2195	-1648.2526	-1649.8370	-1651.0888	-1652.6951	-1653.9184	-1653.6470	-1656.4964	-1655.9099	-1657.3279	-1659.0240	-1660.6894	-1662.0024	-1664.0114	-1664.8145	-1666.6243	-1667.1824	-1667.5522	-1669.7406	-1670.6510	-1670.4694
-1440.5305	-1459.5500	-1465.1567	-1470.4067	-1473.8644	-1477.0289	-1479.0510	-1483.3665	-1485.7891	-1487.2247	-1491.0719	-1492.3653	-1495.0614	-1497.4008	-1498.9480	-1501.0905	-1503.6072	-1504.7189	-1506.3908	-1509.3583	-1509.8901	-1512.1879	-1515.0548	-1516.6195	-1519.2674	-1520.6877	-1521.6725	-1522.9462	-1527.5484	-1527.5353	-1529.5705	-1530.6275	-1532.6540	-1533.8292	-1536.2649	-1538.6918	-1539.6744	-1542.1977	-1544.4955	-1544.5633	-1546.6905	-1548.6228	-1551.4350	-1551.9514	-1551.1351	-1554.7154	-1556.4552	-1558.5845	-1559.6087	-1563.2830	-1562.8213	-1564.4144	-1566.7517	-1567.7561	-1569.6820	-1570.3385	-1570.6711	-1573.3147	-1575.3040	-1576.7177	-1579.2585	-1581.2127	-1581.3593	-1583.8519	-1584.4122	-1586.8304	-1587.8327	-1590.3296	-1589.7607	-1590.7170	-1593.2424	-1594.9166	-1596.8533	-1599.8339	-1600.7968	-1601.0813	-1602.5497	-1605.6814	-1605.5479	-1606.1913	-1607.7100	-1609.1281	-1610.8570	-1611.5857	-1614.3913	-1616.0632	-1617.2646	-1618.9738	-1619.4925	-1620.7727	-1622.4709	-1622.5081	-1625.0817	-1626.4976	-1627.4145	-1628.9595	-1629.2856	-1632.6098	-1635.0499	-1635.6495	-1636.5883	-1635.9253	-1638.5470	-1640.6413	-1640.5713	-1642.2804	-1643.6525	-1644.6964	-1647.7383	-1649.4168	-1650.1696	-1651.3952	-1652.5791	-1654.1569	-1655.2577	-1655.6844	-1656.9362	-1659.2997	-1659.3238	-1661.9696	-1662.5736	-1664.1799	-1665.2369	-1667.2218	-1666.9460	-1670.4672	-1670.2527	-1670.3928
-1439.7230	-1459.1933	-1464.0822	-1470.7350	-1473.2451	-1476.2520	-1478.2588	-1481.8368	-1484.5942	-1486.9161	-1490.2381	-1492.2690	-1495.2693	-1495.8974	-1498.2302	-1501.3421	-1502.8346	-1504.9705	-1506.3624	-1508.0102	-1509.5181	-1512.4133	-1513.4857	-1516.2846	-1519.1887	-1519.9634	-1520.6221	-1523.3554	-1527.7147	-1526.7956	-1528.3647	-1529.6165	-1532.4986	-1533.4681	-1535.8359	-1537.6698	-1539.6328	-1542.1692	-1543.5435	-1543.0008	-1546.7364	-1547.5549	-1551.2818	-1550.6887	-1550.8485	-1554.6082	-1555.5667	-1558.0462	-1559.8647	-1561.4798	-1562.5302	-1563.8433	-1566.0667	-1567.4148	-1568.5112	-1569.4544	-1570.7783	-1573.3869	-1574.0829	-1576.2056	-1576.9628	-1581.1624	-1580.8057	-1583.6112	-1583.1473	-1586.0557	-1587.8611	-1589.7213	-1589.0429	-1590.6098	-1592.4349	-1593.1636	-1596.6454	-1599.2277	-1599.8361	-1600.1994	-1602.1755	-1603.9416	-1605.2634	-1606.1869	-1606.9397	-1608.8217	-1609.8153	-1610.6950	-1613.7391	-1616.0019	-1616.6431	-1618.2888	-1618.8381	-1620.8865	-1622.0266	-1621.4576	-1624.6265	-1625.7754	-1627.1410	-1628.1651	-1629.1324	-1631.8898	-1633.6055	-1635.0937	-1634.4152	-1636.3060	-1637.7810	-1639.8316	-1640.9520	-1642.7137	-1643.3221	-1646.5763	-1646.9352	-1649.3249	-1649.3512	-1650.5023	-1652.0145	-1653.2072	-1653.8987	-1655.4503	-1656.4964	-1658.1946	-1658.6826	-1660.8097	-1662.1228	-1664.1821	-1664.9765	-1666.3136	-1666.7338	-1669.4824	-1669.1147	-1670.1389
-1438.7229	-1458.8431	-1464.5483	-1469.9931	-1472.0699	-1476.8582	-1479.3114	-1482.9091	-1482.5896	-1486.6097	-1489.4109	-1492.3106	-1494.7528	-1495.8536	-1497.6700	-1500.1582	-1502.4976	-1504.0755	-1505.1938	-1507.8614	-1509.0432	-1510.6604	-1512.9670	-1516.8142	-1518.4096	-1519.8561	-1521.3749	-1522.7667	-1526.1960	-1526.0822	-1528.8352	-1529.8265	-1531.3563	-1532.3410	-1534.8533	-1537.7661	-1538.3876	-1541.2041	-1542.4209	-1543.2459	-1546.2987	-1547.1085	-1550.0825	-1550.8485	-1550.9732	-1553.9451	-1555.8271	-1558.4138	-1560.0420	-1561.1428	-1561.9284	-1563.4975	-1565.5874	-1566.7320	-1567.2462	-1569.0933	-1570.7390	-1572.9668	-1573.6758	-1576.7834	-1577.2276	-1580.2214	-1580.0419	-1582.1406	-1582.3857	-1586.3183	-1587.4847	-1589.3033	-1589.2486	-1591.3122	-1591.2335	-1594.0171	-1597.1247	-1598.8185	-1599.8099	-1600.8603	-1601.5409	-1602.8846	-1604.1298	-1605.6770	-1606.7034	-1608.0339	-1609.3448	-1610.4040	-1612.9513	-1615.3695	-1616.2667	-1617.3347	-1618.1706	-1619.9214	-1621.7203	-1621.2541	-1624.3135	-1625.4975	-1627.6946	-1628.4474	-1629.2090	-1630.4017	-1633.5049	-1634.7523	-1633.7762	-1635.8224	-1637.9386	-1639.0722	-1639.3129	-1642.0441	-1643.6657	-1647.1759	-1646.2721	-1648.3554	-1649.2483	-1650.1806	-1651.8525	-1652.1151	-1654.0453	-1655.1986	-1656.3869	-1657.4549	-1658.0895	-1661.5822	-1662.7924	-1663.3527	-1665.0815	-1665.7818	-1665.8978	-1668.8303	-1668.5808	-1669.9857
-1438.9658	-1458.3704	-1463.9837	-1468.9470	-1472.1159	-1474.7288	-1478.9459	-1482.2876	-1482.9507	-1484.9444	-1489.0258	-1491.2754	-1494.2495	-1495.5691	-1496.6743	-1498.7095	-1501.6814	-1503.8741	-1504.4606	-1508.4895	-1507.9818	-1509.3736	-1512.5687	-1515.0482	-1517.5123	-1519.5432	-1521.4843	-1521.8979	-1524.0951	-1526.3120	-1528.2006	-1528.9512	-1531.1877	-1531.8596	-1534.6476	-1537.9040	-1538.4117	-1540.6417	-1541.9044	-1543.4888	-1545.6772	-1546.6117	-1548.9511	-1550.6821	-1550.6077	-1553.0981	-1554.7810	-1557.0964	-1559.6043	-1560.9502	-1561.6308	-1563.1167	-1564.9550	-1565.7056	-1567.6336	-1568.1129	-1571.0650	-1571.2686	-1573.4460	-1575.6126	-1576.7812	-1579.8581	-1580.1338	-1580.7269	-1582.3813	-1585.2635	-1587.1433	-1588.4016	-1588.9269	-1590.5594	-1591.1000	-1594.2031	-1595.7263	-1598.2451	-1599.5538	-1600.6218	-1600.9369	-1602.9459	-1604.0007	-1604.6112	-1606.5370	-1607.3533	-1608.4672	-1609.9750	-1612.7106	-1613.5794	-1615.0062	-1617.0414	-1618.6674	-1619.2255	-1620.8930	-1620.3109	-1623.8255	-1624.9022	-1627.0447	-1627.7056	-1629.6511	-1630.2332	-1632.3625	-1634.2358	-1632.5967	-1635.3606	-1637.4834	-1638.0852	-1639.5121	-1640.9433	-1642.6130	-1644.4666	-1646.5259	-1647.4210	-1648.8500	-1649.0404	-1650.9837	-1651.6578	-1653.3822	-1654.4414	-1656.2841	-1657.0106	-1656.9909	-1660.6543	-1662.0877	-1662.9347	-1664.8802	-1664.6285	-1665.2675	-1668.9419	-1668.0949	-1669.2833
-1437.8584	-1457.5826	-1463.7693	-1467.6734	-1472.1202	-1474.0132	-1477.4031	-1482.0163	-1482.4408	-1485.5921	-1488.5246	-1490.5773	-1493.8249	-1494.8185	-1496.1162	-1498.4097	-1501.7076	-1503.9092	-1504.2374	-1506.6797	-1508.0453	-1510.1571	-1510.8574	-1515.3699	-1516.7158	-1519.1340	-1519.8299	-1522.3706	-1521.8760	-1525.7058	-1526.7102	-1528.3691	-1531.4197	-1530.4306	-1534.6236	-1537.5998	-1538.1316	-1540.1077	-1541.2763	-1542.2042	-1545.5547	-1545.9464	-1548.4762	-1549.6120	-1550.0650	-1552.2644	-1553.9122	-1557.5144	-1559.3132	-1559.8691	-1561.5060	-1562.7512	-1563.6332	-1565.1694	-1566.7473	-1568.3054	-1568.7541	-1571.6647	-1573.5839	-1574.7416	-1577.0394	-1579.5101	-1579.8209	-1580.1907	-1582.5017	-1583.9920	-1586.5809	-1588.3163	-1588.4016	-1589.6512	-1591.8703	-1592.7500	-1594.6977	-1596.6191	-1598.1795	-1600.0637	-1601.2017	-1601.8013	-1602.7292	-1603.9613	-1605.8324	-1607.4343	-1608.3622	-1609.9641	-1613.1307	-1613.1285	-1614.3759	-1616.4352	-1617.9059	-1619.5187	-1620.2628	-1619.8864	-1623.4688	-1623.8189	-1626.1627	-1626.5917	-1629.3359	-1629.5745	-1631.2027	-1633.8660	-1631.8876	-1635.2206	-1636.9801	-1638.6258	-1639.1663	-1640.4006	-1641.6064	-1647.4845	-1645.0794	-1646.7645	-1648.3992	-1648.9463	-1650.1193	-1651.0078	-1652.2443	-1653.3932	-1655.4765	-1655.6079	-1657.7744	-1660.0941	-1661.2474	-1663.5671	-1664.4140	-1663.2038	-1664.1405	-1667.9221	-1667.6398	-1669.3949
